File: XRD of Go Ce5-Refluxometry method-11-05-2022.csv
Calc. data,,Go Ce5,,Individual peaks,,Peak bar 1,,,,,,,,5,-574.33
2θ - °,Intensity - cps,2θ - °,Intensity - cps,2θ - °,Intensity - cps,2θ - °,Y,Intensity - cps,,,,,,5.05,-191.5905
5,1.46E-13,5,-574.33,5,1.46E-13,28.74943,0,0,,,,,,5.1,-135.5277
5.65,1.54E-13,5.65,-69.5006,5.65,1.54E-13,,,,,,,,,5.75,-210.9593
6.3,1.63E-13,6.3,80.30647,6.3,1.63E-13,,,,,,,,,6.4,181.9229
6.95,1.73E-13,6.95,175.1091,6.95,1.73E-13,,,,,,,,,7.05,173.1367
7.6,1.83E-13,7.6,-65.07465,7.6,1.83E-13,,,,,,,,,7.7,82.70021
8.25,1.95E-13,8.25,13.10644,8.25,1.95E-13,,,,,,,,,8.35,-29.36865
8.9,2.08E-13,8.9,-60.32961,8.9,2.08E-13,,,,,,,,,9,50.28143
9.55,2.22E-13,9.55,84.63517,9.55,2.22E-13,,,,,,,,,9.65,8.335111
10.2,2.38E-13,10.2,31.35207,10.2,2.38E-13,,,,,,,,,10.3,-11.85632
10.85,0.2500784,10.85,-23.49425,10.85,2.56E-13,,,,,,,,,10.95,-10.27488
11.5,0.2573665,11.5,-59.88583,11.5,2.75E-13,,,,,,,,,11.6,43.0974
12.15,0.2649779,12.15,-21.13803,12.15,2.97E-13,,,,,,,,,12.25,-15.05483
12.8,0.2729319,12.8,-97.23287,12.8,3.22E-13,,,,,,,,,12.9,108.6197
13.45,0.5974735,13.45,-81.48572,13.45,3.50E-13,,,,,,,,,13.55,17.47237
14.1,0.8429284,14.1,-33.87859,14.1,3.81E-13,,,,,,,,,14.2,61.52108
14.75,0.8814362,14.75,-11.06019,14.75,4.17E-13,,,,,,,,,14.85,-22.54949
15.4,0.9230137,15.4,-16.34587,15.4,4.59E-13,,,,,,,,,15.5,1.945281
16.05,0.9680408,16.05,13.61567,16.05,5.07E-13,,,,,,,,,16.15,-38.30996
16.7,1.016965,16.7,-81.15759,16.7,5.62E-13,,,,,,,,,16.8,-123.2972
17.35,1.070316,17.35,46.01899,17.35,6.28E-13,,,,,,,,,17.45,17.00143
18,1.128729,18,-94.83662,18,7.05E-13,,,,,,,,,18.1,-77.396
18.65,1.192965,18.65,26.29355,18.65,7.98E-13,,,,,,,,,18.75,16.86178
19.3,1.263955,19.3,-40.57252,19.3,9.10E-13,,,,,,,,,19.4,79.79276
19.95,1.342843,19.95,7.916472,19.95,1.05E-12,,,,,,,,,20.05,-25.25177
20.6,1.431049,20.6,11.7785,20.6,1.22E-12,,,,,,,,,20.7,11.74617
21.25,1.530366,21.25,14.36488,21.25,1.44E-12,,,,,,,,,21.35,-152.5288
21.9,1.643082,21.9,39.0269,21.9,1.72E-12,,,,,,,,,22,-34.72532
22.55,1.772169,22.55,-7.550782,22.55,2.09E-12,,,,,,,,,22.65,8.507865
23.2,1.921548,23.2,-5.350203,23.2,2.59E-12,,,,,,,,,23.3,-6.144586
23.85,2.096501,23.85,-117.6867,23.85,3.30E-12,,,,,,,,,23.95,84.66863
24.5,2.304336,24.5,-41.20902,24.5,4.20E-05,,,,,,,,,24.6,-59.03451
25.15,2.559687,25.15,-62.56581,25.15,0.004507644,,,,,,,,,25.25,-47.23603
25.8,3.087932,25.8,-41.73911,25.8,0.2238858,,,,,,,,,25.9,43.41537
26.45,8.403552,26.45,21.28906,26.45,5.150315,,,,,,,,,26.55,22.93767
27.1,58.63551,27.1,79.87,27.1,54.87788,,,,,,,,,27.2,48.0155
27.75,275.2926,27.75,210.6884,27.75,270.8583,,,,,,,,,27.85,322.0002
28.4,624.6694,28.4,637.0954,28.4,619.2875,,,,,,,,,28.5,621.5764
29.05,597.899,29.05,622.4425,29.05,591.1154,,,,,,,,,29.15,636.762
29.7,173.9617,29.7,86.7476,29.7,164.949,,,,,,,,,29.8,210.9083
30.35,57.24179,30.35,16.69533,30.35,44.31549,,,,,,,,,30.45,77.36677
31,43.09916,31,18.97033,31,22.23595,,,,,,,,,31.1,-0.511408
31.65,54.72958,31.65,73.59058,31.65,13.66728,,,,,,,,,31.75,73.95844
32.3,104.0821,32.3,260.5741,32.3,9.217058,,,,,,,,,32.4,230.7943
32.95,243.8485,32.95,253.2721,32.95,6.622764,,,,,,,,,33.05,143.3474
33.6,183.9103,33.6,171.7026,33.6,4.983377,,,,,,,,,33.7,134.9691
34.25,54.44156,34.25,32.55026,34.25,3.883304,,,,,,,,,34.35,39.01075
34.9,11.42083,34.9,9.166374,34.9,3.11012,,,,,,,,,35,-21.17639
35.55,6.491515,35.55,18.23558,35.55,2.546329,,,,,,,,,35.65,7.758987
36.2,6.258174,36.2,3.109182,36.2,2.122754,,,,,,,,,36.3,-7.498472
36.85,6.373568,36.85,93.80516,36.85,1.796549,,,,,,,,,36.95,43.06921
37.5,6.642332,37.5,-12.99186,37.5,1.540043,,,,,,,,,37.6,49.48
38.15,7.064898,38.15,-7.263886,38.15,1.334731,,,,,,,,,38.25,11.75187
38.8,7.658383,38.8,97.67371,38.8,1.167856,,,,,,,,,38.9,-0.09720423
39.45,8.455703,39.45,35.17224,39.45,1.030399,,,,,,,,,39.55,43.95076
40.1,9.510735,40.1,-41.417,40.1,0.9158365,,,,,,,,,40.2,17.24705
40.75,10.90835,40.75,11.25732,40.75,0.8193557,,,,,,,,,40.85,-13.52368
41.4,12.78292,41.4,73.21314,41.4,0.737345,,,,,,,,,41.5,8.323213
42.05,15.35315,42.05,-15.53153,42.05,0.6670508,,,,,,,,,42.15,12.80569
42.7,18.99089,42.7,65.04125,42.7,0.6063444,,,,,,,,,42.8,36.6084
43.35,24.36674,43.35,28.28281,43.35,0.553559,,,,,,,,,43.45,63.08265
44,32.78593,44,60.87778,44,0.5073749,,,,,,,,,44.1,32.24641
44.65,47.05365,44.65,29.51081,44.65,0.4667359,,,,,,,,,44.75,47.45098
45.3,73.95135,45.3,20.86652,45.3,0.4307891,,,,,,,,,45.4,105.381
45.95,130.4562,45.95,124.9629,45.95,0.398839,,,,,,,,,46.05,152.7211
46.6,262.1218,46.6,241.8179,46.6,0.3703148,,,,,,,,,46.7,289.4893
47.25,597.0353,47.25,581.4495,47.25,0.3447436,,,,,,,,,47.35,729.0369
47.9,574.0096,47.9,633.8758,47.9,0.3217317,,,,,,,,,48,524.7151
48.55,307.3911,48.55,275.7812,48.55,0.3009486,,,,,,,,,48.65,256.5421
49.2,165.6804,49.2,150.5172,49.2,0.2821156,,,,,,,,,49.3,87.86898
49.85,102.9746,49.85,104.7683,49.85,0.2649963,,,,,,,,,49.95,45.38047
50.5,73.56634,50.5,95.21929,50.5,0.2493888,,,,,,,,,50.6,49.09453
51.15,59.36846,51.15,68.5547,51.15,0.2351204,,,,,,,,,51.25,52.36248
51.8,53.74281,51.8,71.45921,51.8,0.2220421,,,,,,,,,51.9,68.53561
52.45,54.55651,52.45,57.28411,52.45,0.2100252,,,,,,,,,52.55,110.9652
53.1,62.26636,53.1,89.38071,53.1,0.1989579,,,,,,,,,53.2,59.66936
53.75,80.16104,53.75,107.767,53.75,0.1887427,,,,,,,,,53.85,77.99924
54.4,115.9004,54.4,122.4609,54.4,0.1792944,,,,,,,,,54.5,112.6395
55.05,186.7919,55.05,170.1472,55.05,0.1705381,,,,,,,,,55.15,210.2749
55.7,344.471,55.7,330.8437,55.7,0.1624078,,,,,,,,,55.8,397.59
56.35,542.704,56.35,551.235,56.35,0.1548453,,,,,,,,,56.45,584.6027
57,395.9851,57,461.3394,57,0.1477989,,,,,,,,,57.1,324.6644
57.65,244.5637,57.65,171.1745,57.65,0.1412226,,,,,,,,,57.75,181.1264
58.3,184.0602,58.3,157.4251,58.3,0.1350757,,,,,,,,,58.4,194.0066
58.95,133.4873,58.95,113.4426,14,0.2219771,,,,,,,,,59.05,166.6564
59.6,93.77394,59.6,165.9114,14.65,0.237941,,,,,,,,,59.7,135.7605
60.25,67.73843,60.25,81.51637,15.3,0.2556907,,,,,,,,,60.35,61.33667
60.9,51.02803,60.9,23.6087,15.95,0.2755028,,,,,,,,,61,86.73634
61.55,39.83912,61.55,32.2064,16.6,0.2977097,,,,,,,,,61.65,38.64415
62.2,31.99925,62.2,73.99409,17.25,0.3227133,,,,,,,,,62.3,30.41139
62.85,26.29479,62.85,-1.010244,17.9,0.3510036,,,,,,,,,62.95,-1.277302
63.5,22.01361,63.5,3.878035,18.55,0.383183,,,,,,,,,63.6,3.596051
64.15,18.71691,64.15,-24.65643,19.2,0.419998,,,,,,,,,64.25,-1.617244
64.8,16.12272,64.8,13.40433,19.85,0.4623836,,,,,,,,,64.9,-23.56588
65.45,14.04333,65.45,8.078284,20.5,0.5115225,,,,,,,,,65.55,-5.56522
66.1,12.3499,66.1,36.05008,21.15,0.5689291,,,,,,,,,66.2,2.402713
66.75,10.95162,66.75,-29.32897,21.8,0.6365668,,,,,,,,,66.85,7.022558
67.4,9.782994,67.4,-18.04091,22.45,0.7170184,,,,,,,,,67.5,-28.35438
68.05,8.79582,68.05,13.26558,23.1,0.8137357,,,,,,,,,68.15,-17.04346
68.7,7.953969,68.7,31.27514,23.75,0.9314155,,,,,,,,,68.8,27.63996
69.35,7.229929,69.35,119.3391,24.4,1.07658,,,,,,,,,69.45,122.3805
70,6.60244,70,64.14201,25.05,1.258496,,,,,,,,,70.1,53.86286
70.65,6.054863,70.65,25.70195,25.7,1.490692,,,,,,,,,70.75,-44.56172
71.3,5.574018,71.3,17.37017,26.35,1.793534,,,,,,,,,71.4,17.12476
71.95,5.149356,71.95,-27.502,27,2.198838,,,,,,,,,72.05,-24.39306
72.6,4.772347,72.6,74.43673,27.65,2.758532,,,,,,,,,72.7,-12.43054
73.25,4.436433,73.25,-10.12899,28.3,3.562062,,,,,,,,,73.35,-26.96971
73.9,4.165239,73.9,25.48547,28.95,4.774192,,,,,,,,,74,32.0074
74.55,4.841806,74.55,-35.36857,29.6,6.725788,,,,,,,,,74.65,-32.14789
75.2,16.93633,75.2,-42.67314,30.25,10.16237,,,,,,,,,75.3,-2.750951
75.85,80.68875,75.85,96.92306,30.9,17.0584,,,,,,,,,75.95,76.88286
76.5,194.925,76.5,190.1047,31.55,34.06787,,,,,,,,,76.6,226.7715
77.15,216.5507,77.15,226.8897,32.2,82.97274,,,,,,,,,77.25,196.933
77.8,161.2081,77.8,173.9627,32.85,194.2569,,,,,,,,,77.9,127.3853
78.45,117.0141,78.45,44.67506,33.5,197.7853,,,,,,,,,78.55,144.813
79.1,98.83187,79.1,125.7114,34.15,61.76596,,,,,,,,,79.2,119.2341
79.75,88.03273,79.75,113.7563,34.8,7.377984,,,,,,,,,79.85,113.9999
,,,,35.45,0.3371335,,,,,,,,,,
,,,,36.1,0.005893514,,,,,,,,,,
,,,,36.75,3.94E-05,,,,,,,,,,
,,,,37.4,1.23E-08,,,,,,,,,,
,,,,38.05,9.37E-09,,,,,,,,,,
,,,,38.7,7.38E-09,,,,,,,,,,
,,,,39.35,5.96E-09,,,,,,,,,,
,,,,40,4.91E-09,,,,,,,,,,
,,,,40.65,4.12E-09,,,,,,,,,,
,,,,41.3,3.50E-09,,,,,,,,,,
,,,,41.95,3.01E-09,,,,,,,,,,
,,,,42.6,2.62E-09,,,,,,,,,,
,,,,43.25,2.30E-09,,,,,,,,,,
,,,,43.9,2.03E-09,,,,,,,,,,
,,,,44.55,1.81E-09,,,,,,,,,,
,,,,45.2,1.62E-09,,,,,,,,,,
,,,,45.85,1.46E-09,,,,,,,,,,
,,,,46.5,1.33E-09,,,,,,,,,,
,,,,47.15,1.21E-09,,,,,,,,,,
,,,,47.8,1.10E-09,,,,,,,,,,
,,,,48.45,1.01E-09,,,,,,,,,,
,,,,49.1,9.32E-10,,,,,,,,,,
,,,,49.75,8.61E-10,,,,,,,,,,
,,,,50.4,7.98E-10,,,,,,,,,,
,,,,51.05,7.42E-10,,,,,,,,,,
,,,,51.7,6.91E-10,,,,,,,,,,
,,,,52.35,6.45E-10,,,,,,,,,,
,,,,53,6.04E-10,,,,,,,,,,
,,,,53.65,5.67E-10,,,,,,,,,,
,,,,54.3,5.33E-10,,,,,,,,,,
,,,,54.95,5.01E-10,,,,,,,,,,
,,,,55.6,4.73E-10,,,,,,,,,,
,,,,56.25,4.47E-10,,,,,,,,,,
,,,,56.9,4.23E-10,,,,,,,,,,
,,,,57.55,4.01E-10,,,,,,,,,,
,,,,58.2,3.80E-10,,,,,,,,,,
,,,,58.85,3.62E-10,,,,,,,,,,
,,,,59.5,3.44E-10,,,,,,,,,,
,,,,60.15,3.28E-10,,,,,,,,,,
,,,,60.8,3.13E-10,,,,,,,,,,
,,,,61.45,2.98E-10,,,,,,,,,,
,,,,62.1,2.85E-10,,,,,,,,,,
,,,,62.75,2.73E-10,,,,,,,,,,
,,,,63.4,2.61E-10,,,,,,,,,,
,,,,64.05,2.51E-10,,,,,,,,,,
,,,,64.7,2.40E-10,,,,,,,,,,
,,,,65.35,2.31E-10,,,,,,,,,,
,,,,66,2.22E-10,,,,,,,,,,
,,,,66.65,2.13E-10,,,,,,,,,,
,,,,67.3,2.05E-10,,,,,,,,,,
,,,,67.95,1.98E-10,,,,,,,,,,
,,,,68.6,1.91E-10,,,,,,,,,,
,,,,69.25,1.84E-10,,,,,,,,,,
,,,,69.9,1.77E-10,,,,,,,,,,
,,,,70.55,1.71E-10,,,,,,,,,,
,,,,71.2,1.65E-10,,,,,,,,,,
,,,,71.85,1.60E-10,,,,,,,,,,
,,,,72.1,0,,,,,,,,,,
,,,,,,,,,,,,,,,
,,,,13.1,0.2074611,,,,,,,,,,
,,,,13.35,0.3143753,,,,,,,,,,
,,,,13.6,0.319028,,,,,,,,,,
,,,,13.85,0.3237848,,,,,,,,,,
,,,,14.1,0.3286487,,,,,,,,,,
,,,,14.35,0.3336231,,,,,,,,,,
,,,,14.6,0.3387113,,,,,,,,,,
,,,,14.85,0.3439167,,,,,,,,,,
,,,,15.1,0.349243,,,,,,,,,,
,,,,15.35,0.3546941,,,,,,,,,,
,,,,15.6,0.3602737,,,,,,,,,,
,,,,15.85,0.365986,,,,,,,,,,
,,,,16.1,0.3718352,,,,,,,,,,
,,,,16.35,0.3778258,,,,,,,,,,
,,,,16.6,0.3839623,,,,,,,,,,
,,,,16.85,0.3902494,,,,,,,,,,
,,,,17.1,0.3966923,,,,,,,,,,
,,,,17.35,0.403296,,,,,,,,,,
,,,,17.6,0.4100659,,,,,,,,,,
,,,,17.85,0.4170078,,,,,,,,,,
,,,,18.1,0.4241273,,,,,,,,,,
,,,,18.35,0.4314308,,,,,,,,,,
,,,,18.6,0.4389245,,,,,,,,,,
,,,,18.85,0.4466151,,,,,,,,,,
,,,,19.1,0.4545095,,,,,,,,,,
,,,,19.35,0.4626152,,,,,,,,,,
,,,,19.6,0.4709395,,,,,,,,,,
,,,,19.85,0.4794905,,,,,,,,,,
,,,,20.1,0.4882765,,,,,,,,,,
,,,,20.35,0.4973062,,,,,,,,,,
,,,,20.6,0.5065886,,,,,,,,,,
,,,,20.85,0.5161333,,,,,,,,,,
,,,,21.1,0.5259503,,,,,,,,,,
,,,,21.35,0.53605,,,,,,,,,,
,,,,21.6,0.5464433,,,,,,,,,,
,,,,21.85,0.5571418,,,,,,,,,,
,,,,22.1,0.5681575,,,,,,,,,,
,,,,22.35,0.5795031,,,,,,,,,,
,,,,22.6,0.5911918,,,,,,,,,,
,,,,22.85,0.6032377,,,,,,,,,,
,,,,23.1,0.6156555,,,,,,,,,,
,,,,23.35,0.6284605,,,,,,,,,,
,,,,23.6,0.6416692,,,,,,,,,,
,,,,23.85,0.6552986,,,,,,,,,,
,,,,24.1,0.6693668,,,,,,,,,,
,,,,24.35,0.6838927,,,,,,,,,,
,,,,24.6,0.6988966,,,,,,,,,,
,,,,24.85,0.7143995,,,,,,,,,,
,,,,25.1,0.7304239,,,,,,,,,,
,,,,25.35,0.7469934,,,,,,,,,,
,,,,25.6,0.7641329,,,,,,,,,,
,,,,25.85,0.7818689,,,,,,,,,,
,,,,26.1,0.8002295,,,,,,,,,,
,,,,26.35,0.8192444,,,,,,,,,,
,,,,26.6,0.8389448,,,,,,,,,,
,,,,26.85,0.8593642,,,,,,,,,,
,,,,27.1,0.880538,,,,,,,,,,
,,,,27.35,0.9025038,,,,,,,,,,
,,,,27.6,0.9253016,,,,,,,,,,
,,,,27.85,0.9489739,,,,,,,,,,
,,,,28.1,0.973566,,,,,,,,,,
,,,,28.35,0.9991261,,,,,,,,,,
,,,,28.6,1.025706,,,,,,,,,,
,,,,28.85,1.05336,,,,,,,,,,
,,,,29.1,1.082147,,,,,,,,,,
,,,,29.35,1.11213,,,,,,,,,,
,,,,29.6,1.143376,,,,,,,,,,
,,,,29.85,1.175957,,,,,,,,,,
,,,,30.1,1.20995,,,,,,,,,,
,,,,30.35,1.245438,,,,,,,,,,
,,,,30.6,1.282509,,,,,,,,,,
,,,,30.85,1.321259,,,,,,,,,,
,,,,31.1,1.361792,,,,,,,,,,
,,,,31.35,1.404218,,,,,,,,,,
,,,,31.6,1.448656,,,,,,,,,,
,,,,31.85,1.495236,,,,,,,,,,
,,,,32.1,1.544098,,,,,,,,,,
,,,,32.35,1.595393,,,,,,,,,,
,,,,32.6,1.649286,,,,,,,,,,
,,,,32.85,1.705954,,,,,,,,,,
,,,,33.1,1.765591,,,,,,,,,,
,,,,33.35,1.828409,,,,,,,,,,
,,,,33.6,1.894637,,,,,,,,,,
,,,,33.85,1.964527,,,,,,,,,,
,,,,34.1,2.038352,,,,,,,,,,
,,,,34.35,2.116416,,,,,,,,,,
,,,,34.6,2.199046,,,,,,,,,,
,,,,34.85,2.286607,,,,,,,,,,
,,,,35.1,2.379498,,,,,,,,,,
,,,,35.35,2.478161,,,,,,,,,,
,,,,35.6,2.583083,,,,,,,,,,
,,,,35.85,2.694804,,,,,,,,,,
,,,,36.1,2.813924,,,,,,,,,,
,,,,36.35,2.94111,,,,,,,,,,
,,,,36.6,3.077107,,,,,,,,,,
,,,,36.85,3.222746,,,,,,,,,,
,,,,37.1,3.378959,,,,,,,,,,
,,,,37.35,3.546793,,,,,,,,,,
,,,,37.6,3.727429,,,,,,,,,,
,,,,37.85,3.922201,,,,,,,,,,
,,,,38.1,4.132619,,,,,,,,,,
,,,,38.35,4.360404,,,,,,,,,,
,,,,38.6,4.607513,,,,,,,,,,
,,,,38.85,4.876195,,,,,,,,,,
,,,,39.1,5.169028,,,,,,,,,,
,,,,39.35,5.488989,,,,,,,,,,
,,,,39.6,5.839526,,,,,,,,,,
,,,,39.85,6.224652,,,,,,,,,,
,,,,40.1,6.649059,,,,,,,,,,
,,,,40.35,7.118257,,,,,,,,,,
,,,,40.6,7.638758,,,,,,,,,,
,,,,40.85,8.218293,,,,,,,,,,
,,,,41.1,8.866105,,,,,,,,,,
,,,,41.35,9.593306,,,,,,,,,,
,,,,41.6,10.41336,,,,,,,,,,
,,,,41.85,11.34268,,,,,,,,,,
,,,,42.1,12.40147,,,,,,,,,,
,,,,42.35,13.61479,,,,,,,,,,
,,,,42.6,15.01403,,,,,,,,,,
,,,,42.85,16.6389,,,,,,,,,,
,,,,43.1,18.54021,,,,,,,,,,
,,,,43.35,20.78378,,,,,,,,,,
,,,,43.6,23.45602,,,,,,,,,,
,,,,43.85,26.67202,,,,,,,,,,
,,,,44.1,30.58768,,,,,,,,,,
,,,,44.35,35.41787,,,,,,,,,,
,,,,44.6,41.4646,,,,,,,,,,
,,,,44.85,49.16021,,,,,,,,,,
,,,,45.1,59.13126,,,,,,,,,,
,,,,45.35,72.28169,,,,,,,,,,
,,,,45.6,89.87779,,,,,,,,,,
,,,,45.85,113.6277,,,,,,,,,,
,,,,46.1,145.9156,,,,,,,,,,
,,,,46.35,190.7861,,,,,,,,,,
,,,,46.6,256.4026,,,,,,,,,,
,,,,46.85,356.9076,,,,,,,,,,
,,,,47.1,500.1507,,,,,,,,,,
,,,,47.35,637.5363,,,,,,,,,,
,,,,47.6,660.3846,,,,,,,,,,
,,,,47.85,587.3475,,,,,,,,,,
,,,,48.1,476.7264,,,,,,,,,,
,,,,48.35,369.7598,,,,,,,,,,
,,,,48.6,283.3235,,,,,,,,,,
,,,,48.85,218.3974,,,,,,,,,,
,,,,49.1,170.804,,,,,,,,,,
,,,,49.35,135.9694,,,,,,,,,,
,,,,49.6,110.2177,,,,,,,,,,
,,,,49.85,90.87449,,,,,,,,,,
,,,,50.1,76.07323,,,,,,,,,,
,,,,50.35,64.53416,,,,,,,,,,
,,,,50.6,55.38115,,,,,,,,,,
,,,,50.85,48.00817,,,,,,,,,,
,,,,51.1,41.98832,,,,,,,,,,
,,,,51.35,37.01445,,,,,,,,,,
,,,,51.6,32.86113,,,,,,,,,,
,,,,51.85,29.35983,,,,,,,,,,
,,,,52.1,26.38267,,,,,,,,,,
,,,,52.35,23.83127,,,,,,,,,,
,,,,52.6,21.62902,,,,,,,,,,
,,,,52.85,19.71563,,,,,,,,,,
,,,,53.1,18.04316,,,,,,,,,,
,,,,53.35,16.57313,,,,,,,,,,
,,,,53.6,15.27439,,,,,,,,,,
,,,,53.85,14.1215,,,,,,,,,,
,,,,54.1,13.09356,,,,,,,,,,
,,,,54.35,12.17325,,,,,,,,,,
,,,,54.6,11.34614,,,,,,,,,,
,,,,54.85,10.60011,,,,,,,,,,
,,,,55.1,9.924972,,,,,,,,,,
,,,,55.35,9.312046,,,,,,,,,,
,,,,55.6,8.753954,,,,,,,,,,
,,,,55.85,8.24437,,,,,,,,,,
,,,,56.1,7.777854,,,,,,,,,,
,,,,56.35,7.349702,,,,,,,,,,
,,,,56.6,6.955836,,,,,,,,,,
,,,,56.85,6.592701,,,,,,,,,,
,,,,57.1,6.257193,,,,,,,,,,
,,,,57.35,5.946584,,,,,,,,,,
,,,,57.6,5.65848,,,,,,,,,,
,,,,57.85,5.390761,,,,,,,,,,
,,,,58.1,5.141555,,,,,,,,,,
,,,,58.35,4.909197,,,,,,,,,,
,,,,58.6,4.692206,,,,,,,,,,
,,,,58.85,4.489259,,,,,,,,,,
,,,,59.1,4.299171,,,,,,,,,,
,,,,59.35,4.120883,,,,,,,,,,
,,,,59.6,3.953437,,,,,,,,,,
,,,,59.85,3.795975,,,,,,,,,,
,,,,60.1,3.647719,,,,,,,,,,
,,,,60.35,3.507968,,,,,,,,,,
,,,,60.6,3.376083,,,,,,,,,,
,,,,60.85,3.251486,,,,,,,,,,
,,,,61.1,3.133651,,,,,,,,,,
,,,,61.35,3.022099,,,,,,,,,,
,,,,61.6,2.916389,,,,,,,,,,
,,,,61.85,2.816124,,,,,,,,,,
,,,,62.1,2.720934,,,,,,,,,,
,,,,62.35,2.630484,,,,,,,,,,
,,,,62.6,2.544465,,,,,,,,,,
,,,,62.85,2.462593,,,,,,,,,,
,,,,63.1,2.384604,,,,,,,,,,
,,,,63.35,2.310258,,,,,,,,,,
,,,,63.6,2.239332,,,,,,,,,,
,,,,63.85,2.171619,,,,,,,,,,
,,,,64.1,2.106929,,,,,,,,,,
,,,,64.35,2.045084,,,,,,,,,,
,,,,64.6,1.985919,,,,,,,,,,
,,,,64.85,1.929283,,,,,,,,,,
,,,,65.1,1.875033,,,,,,,,,,
,,,,65.35,1.823038,,,,,,,,,,
,,,,65.6,1.773174,,,,,,,,,,
,,,,65.85,1.725327,,,,,,,,,,
,,,,66.1,1.679389,,,,,,,,,,
,,,,66.35,1.63526,,,,,,,,,,
,,,,66.6,1.592846,,,,,,,,,,
,,,,66.85,1.55206,,,,,,,,,,
,,,,67.1,1.512819,,,,,,,,,,
,,,,67.35,1.475047,,,,,,,,,,
,,,,67.6,1.438672,,,,,,,,,,
,,,,67.85,1.403624,,,,,,,,,,
,,,,68.1,1.369841,,,,,,,,,,
,,,,68.35,1.337262,,,,,,,,,,
,,,,68.6,1.305831,,,,,,,,,,
,,,,68.85,1.275495,,,,,,,,,,
,,,,69.1,1.246202,,,,,,,,,,
,,,,69.35,1.217907,,,,,,,,,,
,,,,69.6,1.190565,,,,,,,,,,
,,,,69.85,1.164132,,,,,,,,,,
,,,,70.1,1.138569,,,,,,,,,,
,,,,70.35,1.113839,,,,,,,,,,
,,,,70.6,1.089905,,,,,,,,,,
,,,,70.85,1.066734,,,,,,,,,,
,,,,71.1,1.044294,,,,,,,,,,
,,,,71.35,1.022554,,,,,,,,,,
,,,,71.6,1.001486,,,,,,,,,,
,,,,71.85,0.9810616,,,,,,,,,,
,,,,72.1,0.9612557,,,,,,,,,,
,,,,72.35,0.9420433,,,,,,,,,,
,,,,72.6,0.9234009,,,,,,,,,,
,,,,72.85,0.9053062,,,,,,,,,,
,,,,73.1,0.8877379,,,,,,,,,,
,,,,73.35,0.8706759,,,,,,,,,,
,,,,73.6,0.8541009,,,,,,,,,,
,,,,73.85,0.8379946,,,,,,,,,,
,,,,74.1,0.8223394,,,,,,,,,,
,,,,74.35,0.8071186,,,,,,,,,,
,,,,74.6,0.7923164,,,,,,,,,,
,,,,74.85,0.7779176,,,,,,,,,,
,,,,75.1,0.7639075,,,,,,,,,,
,,,,75.35,0.7502724,,,,,,,,,,
,,,,75.6,0.736999,,,,,,,,,,
,,,,75.85,0.7240747,,,,,,,,,,
,,,,76.1,0.7114872,,,,,,,,,,
,,,,76.35,0.6992249,,,,,,,,,,
,,,,76.6,0.687277,,,,,,,,,,
,,,,76.85,0.6756325,,,,,,,,,,
,,,,77.1,0.6642814,,,,,,,,,,
,,,,77.35,0.6532139,,,,,,,,,,
,,,,77.6,0.6424205,,,,,,,,,,
,,,,77.85,0.6318925,,,,,,,,,,
,,,,78.1,0.621621,,,,,,,,,,
,,,,78.35,0.6115979,,,,,,,,,,
,,,,78.6,0.6018152,,,,,,,,,,
,,,,78.85,0.5922653,,,,,,,,,,
,,,,79.1,0.5829409,,,,,,,,,,
,,,,79.35,0.5738348,,,,,,,,,,
,,,,79.6,0.5649404,,,,,,,,,,
,,,,79.85,0.5562512,,,,,,,,,,
,,,,80,0.5511335,,,,,,,,,,
,,,,,,,,,,,,,,,
,,,,10.55,0.1652384,,,,,,,,,,
,,,,10.8,0.2495307,,,,,,,,,,
[...]
,,,,78.55,2.06184,,,,,,,,,,
,,,,78.8,2.016144,,,,,,,,,,
,,,,79.05,1.97195,,,,,,,,,,
,,,,79.3,1.929193,,,,,,,,,,
,,,,79.55,1.88781,,,,,,,,,,
,,,,79.8,1.847744,,,,,,,,,,
,,,,80,1.816602,,,,,,,,,,
,,,,,,,,,,,,,,,
,,,,35.7,1.43E-16,,,,,,,,,,
,,,,35.85,1.44E-16,,,,,,,,,,
,,,,36,2.17E-16,,,,,,,,,,
,,,,36.15,2.19E-16,,,,,,,,,,
,,,,36.3,2.20E-16,,,,,,,,,,
,,,,36.45,2.22E-16,,,,,,,,,,
,,,,36.6,2.24E-16,,,,,,,,,,
,,,,36.75,2.25E-16,,,,,,,,,,
,,,,36.9,2.27E-16,,,,,,,,,,
,,,,37.05,2.29E-16,,,,,,,,,,
,,,,37.2,2.30E-16,,,,,,,,,,
,,,,37.35,2.32E-16,,,,,,,,,,
,,,,37.5,2.34E-16,,,,,,,,,,
,,,,37.65,2.36E-16,,,,,,,,,,
,,,,37.8,2.37E-16,,,,,,,,,,
,,,,37.95,2.39E-16,,,,,,,,,,
,,,,38.1,2.41E-16,,,,,,,,,,
,,,,38.25,2.43E-16,,,,,,,,,,
,,,,38.4,2.45E-16,,,,,,,,,,
,,,,38.55,2.47E-16,,,,,,,,,,
,,,,38.7,2.49E-16,,,,,,,,,,
,,,,38.85,2.51E-16,,,,,,,,,,
,,,,39,2.53E-16,,,,,,,,,,
,,,,39.15,2.55E-16,,,,,,,,,,
,,,,39.3,2.57E-16,,,,,,,,,,
,,,,39.45,2.59E-16,,,,,,,,,,
,,,,39.6,2.61E-16,,,,,,,,,,
,,,,39.75,2.63E-16,,,,,,,,,,
,,,,39.9,2.65E-16,,,,,,,,,,
,,,,40.05,2.67E-16,,,,,,,,,,
,,,,40.2,2.70E-16,,,,,,,,,,
,,,,40.35,2.72E-16,,,,,,,,,,
,,,,40.5,2.74E-16,,,,,,,,,,
,,,,40.65,2.76E-16,,,,,,,,,,
,,,,40.8,2.79E-16,,,,,,,,,,
,,,,40.95,2.81E-16,,,,,,,,,,
,,,,41.1,2.83E-16,,,,,,,,,,
,,,,41.25,2.86E-16,,,,,,,,,,
,,,,41.4,2.88E-16,,,,,,,,,,
,,,,41.55,2.91E-16,,,,,,,,,,
,,,,41.7,2.93E-16,,,,,,,,,,
,,,,41.85,2.96E-16,,,,,,,,,,
,,,,42,2.98E-16,,,,,,,,,,
,,,,42.15,3.01E-16,,,,,,,,,,
,,,,42.3,3.03E-16,,,,,,,,,,
,,,,42.45,3.06E-16,,,,,,,,,,
,,,,42.6,3.09E-16,,,,,,,,,,
,,,,42.75,3.11E-16,,,,,,,,,,
,,,,42.9,3.14E-16,,,,,,,,,,
,,,,43.05,3.17E-16,,,,,,,,,,
,,,,43.2,3.20E-16,,,,,,,,,,
,,,,43.35,3.23E-16,,,,,,,,,,
,,,,43.5,3.25E-16,,,,,,,,,,
,,,,43.65,3.28E-16,,,,,,,,,,
,,,,43.8,3.31E-16,,,,,,,,,,
,,,,43.95,3.34E-16,,,,,,,,,,
,,,,44.1,3.37E-16,,,,,,,,,,
,,,,44.25,3.41E-16,,,,,,,,,,
,,,,44.4,3.44E-16,,,,,,,,,,
,,,,44.55,3.47E-16,,,,,,,,,,
,,,,44.7,3.50E-16,,,,,,,,,,
,,,,44.85,3.53E-16,,,,,,,,,,
,,,,45,3.57E-16,,,,,,,,,,
,,,,45.15,3.60E-16,,,,,,,,,,
,,,,45.3,3.64E-16,,,,,,,,,,
,,,,45.45,3.67E-16,,,,,,,,,,
,,,,45.6,3.71E-16,,,,,,,,,,
,,,,45.75,3.74E-16,,,,,,,,,,
,,,,45.9,3.78E-16,,,,,,,,,,
,,,,46.05,3.81E-16,,,,,,,,,,
,,,,46.2,3.85E-16,,,,,,,,,,
,,,,46.35,3.89E-16,,,,,,,,,,
,,,,46.5,3.93E-16,,,,,,,,,,
,,,,46.65,3.97E-16,,,,,,,,,,
,,,,46.8,4.01E-16,,,,,,,,,,
,,,,46.95,4.05E-16,,,,,,,,,,
,,,,47.1,4.09E-16,,,,,,,,,,
,,,,47.25,4.13E-16,,,,,,,,,,
,,,,47.4,4.17E-16,,,,,,,,,,
,,,,47.55,4.21E-16,,,,,,,,,,
,,,,47.7,4.26E-16,,,,,,,,,,
,,,,47.85,4.30E-16,,,,,,,,,,
,,,,48,4.35E-16,,,,,,,,,,
,,,,48.15,4.39E-16,,,,,,,,,,
,,,,48.3,4.44E-16,,,,,,,,,,
,,,,48.45,4.49E-16,,,,,,,,,,
,,,,48.6,4.53E-16,,,,,,,,,,
,,,,48.75,4.58E-16,,,,,,,,,,
,,,,48.9,4.63E-16,,,,,,,,,,
,,,,49.05,4.68E-16,,,,,,,,,,
,,,,49.2,4.73E-16,,,,,,,,,,
,,,,49.35,4.78E-16,,,,,,,,,,
,,,,49.5,4.84E-16,,,,,,,,,,
,,,,49.65,4.89E-16,,,,,,,,,,
,,,,49.8,4.94E-16,,,,,,,,,,
,,,,49.95,5.00E-16,,,,,,,,,,
,,,,50.1,5.06E-16,,,,,,,,,,
,,,,50.25,5.11E-16,,,,,,,,,,
,,,,50.4,5.17E-16,,,,,,,,,,
,,,,50.55,5.23E-16,,,,,,,,,,
,,,,50.7,5.29E-16,,,,,,,,,,
,,,,50.85,5.35E-16,,,,,,,,,,
,,,,51,5.41E-16,,,,,,,,,,
,,,,51.15,5.48E-16,,,,,,,,,,
,,,,51.3,5.54E-16,,,,,,,,,,
,,,,51.45,5.61E-16,,,,,,,,,,
,,,,51.6,5.67E-16,,,,,,,,,,
,,,,51.75,5.74E-16,,,,,,,,,,
,,,,51.9,5.81E-16,,,,,,,,,,
,,,,52.05,5.88E-16,,,,,,,,,,
,,,,52.2,5.95E-16,,,,,,,,,,
,,,,52.35,6.02E-16,,,,,,,,,,
,,,,52.5,6.10E-16,,,,,,,,,,
,,,,52.65,6.17E-16,,,,,,,,,,
,,,,52.8,6.25E-16,,,,,,,,,,
,,,,52.95,6.33E-16,,,,,,,,,,
,,,,53.1,6.41E-16,,,,,,,,,,
,,,,53.25,6.49E-16,,,,,,,,,,
,,,,53.4,6.57E-16,,,,,,,,,,
,,,,53.55,6.66E-16,,,,,,,,,,
,,,,53.7,6.75E-16,,,,,,,,,,
,,,,53.85,6.83E-16,,,,,,,,,,
,,,,54,6.92E-16,,,,,,,,,,
,,,,54.15,7.02E-16,,,,,,,,,,
,,,,54.3,7.11E-16,,,,,,,,,,
,,,,54.45,7.20E-16,,,,,,,,,,
,,,,54.6,7.30E-16,,,,,,,,,,
,,,,54.75,7.40E-16,,,,,,,,,,
,,,,54.9,7.50E-16,,,,,,,,,,
,,,,55.05,7.60E-16,,,,,,,,,,
,,,,55.2,7.71E-16,,,,,,,,,,
,,,,55.35,7.82E-16,,,,,,,,,,
,,,,55.5,7.93E-16,,,,,,,,,,
,,,,55.65,8.04E-16,,,,,,,,,,
,,,,55.8,8.16E-16,,,,,,,,,,
,,,,55.95,8.27E-16,,,,,,,,,,
,,,,56.1,8.39E-16,,,,,,,,,,
,,,,56.25,8.51E-16,,,,,,,,,,
,,,,56.4,8.64E-16,,,,,,,,,,
,,,,56.55,8.77E-16,,,,,,,,,,
,,,,56.7,8.90E-16,,,,,,,,,,
,,,,56.85,9.03E-16,,,,,,,,,,
,,,,57,9.17E-16,,,,,,,,,,
,,,,57.15,9.31E-16,,,,,,,,,,
,,,,57.3,9.45E-16,,,,,,,,,,
,,,,57.45,9.60E-16,,,,,,,,,,
,,,,57.6,9.75E-16,,,,,,,,,,
,,,,57.75,9.90E-16,,,,,,,,,,
,,,,57.9,1.01E-15,,,,,,,,,,
,,,,58.05,1.02E-15,,,,,,,,,,
,,,,58.2,1.04E-15,,,,,,,,,,
,,,,58.35,1.06E-15,,,,,,,,,,
,,,,58.5,1.07E-15,,,,,,,,,,
,,,,58.65,1.09E-15,,,,,,,,,,
,,,,58.8,1.11E-15,,,,,,,,,,
,,,,58.95,1.13E-15,,,,,,,,,,
,,,,59.1,1.15E-15,,,,,,,,,,
,,,,59.25,1.17E-15,,,,,,,,,,
,,,,59.4,1.19E-15,,,,,,,,,,
,,,,59.55,1.21E-15,,,,,,,,,,
,,,,59.7,1.23E-15,,,,,,,,,,
,,,,59.85,1.25E-15,,,,,,,,,,
,,,,60,1.27E-15,,,,,,,,,,
,,,,60.15,1.29E-15,,,,,,,,,,
,,,,60.3,1.32E-15,,,,,,,,,,
,,,,60.45,1.34E-15,,,,,,,,,,
,,,,60.6,1.37E-15,,,,,,,,,,
,,,,60.75,1.39E-15,,,,,,,,,,
,,,,60.9,1.42E-15,,,,,,,,,,
,,,,61.05,1.44E-15,,,,,,,,,,
,,,,61.2,1.47E-15,,,,,,,,,,
,,,,61.35,1.50E-15,,,,,,,,,,
,,,,61.5,1.53E-15,,,,,,,,,,
,,,,61.65,1.56E-15,,,,,,,,,,
,,,,61.8,1.59E-15,,,,,,,,,,
,,,,61.95,1.62E-15,,,,,,,,,,
,,,,62.1,1.66E-15,,,,,,,,,,
,,,,62.25,1.69E-15,,,,,,,,,,
,,,,62.4,1.73E-15,,,,,,,,,,
,,,,62.55,1.76E-15,,,,,,,,,,
,,,,62.7,1.80E-15,,,,,,,,,,
,,,,62.85,1.84E-15,,,,,,,,,,
,,,,63,1.88E-15,,,,,,,,,,
,,,,63.15,1.92E-15,,,,,,,,,,
,,,,63.3,1.96E-15,,,,,,,,,,
,,,,63.45,2.01E-15,,,,,,,,,,
,,,,63.6,2.05E-15,,,,,,,,,,
,,,,63.75,2.10E-15,,,,,,,,,,
,,,,63.9,2.15E-15,,,,,,,,,,
,,,,64.05,2.20E-15,,,,,,,,,,
,,,,64.2,2.25E-15,,,,,,,,,,
,,,,64.35,2.30E-15,,,,,,,,,,
,,,,64.5,2.36E-15,,,,,,,,,,
,,,,64.65,2.42E-15,,,,,,,,,,
,,,,64.8,2.48E-15,,,,,,,,,,
,,,,64.95,2.54E-15,,,,,,,,,,
,,,,65.1,2.60E-15,,,,,,,,,,
,,,,65.25,2.67E-15,,,,,,,,,,
,,,,65.4,2.74E-15,,,,,,,,,,
,,,,65.55,2.81E-15,,,,,,,,,,
,,,,65.7,2.89E-15,,,,,,,,,,
,,,,65.85,2.97E-15,,,,,,,,,,
,,,,66,3.05E-15,,,,,,,,,,
,,,,66.15,3.14E-15,,,,,,,,,,
,,,,66.3,3.23E-15,,,,,,,,,,
,,,,66.45,3.32E-15,,,,,,,,,,
,,,,66.6,3.42E-15,,,,,,,,,,
,,,,66.75,3.52E-15,,,,,,,,,,
,,,,66.9,3.62E-15,,,,,,,,,,
,,,,67.05,3.73E-15,,,,,,,,,,
,,,,67.2,3.85E-15,,,,,,,,,,
,,,,67.35,3.97E-15,,,,,,,,,,
,,,,67.5,4.10E-15,,,,,,,,,,
,,,,67.65,4.23E-15,,,,,,,,,,
,,,,67.8,4.37E-15,,,,,,,,,,
,,,,67.95,4.52E-15,,,,,,,,,,
,,,,68.1,4.67E-15,,,,,,,,,,
,,,,68.25,4.84E-15,,,,,,,,,,
,,,,68.4,5.01E-15,,,,,,,,,,
,,,,68.55,5.19E-15,,,,,,,,,,
,,,,68.7,5.38E-15,,,,,,,,,,
,,,,68.85,5.58E-15,,,,,,,,,,
,,,,69,5.79E-15,,,,,,,,,,
,,,,69.15,6.02E-15,,,,,,,,,,
,,,,69.3,6.25E-15,,,,,,,,,,
,,,,69.45,6.51E-15,,,,,,,,,,
,,,,69.6,6.77E-15,,,,,,,,,,
,,,,69.75,7.06E-15,,,,,,,,,,
,,,,69.9,7.36E-15,,,,,,,,,,
,,,,70.05,7.68E-15,,,,,,,,,,
,,,,70.2,8.03E-15,,,,,,,,,,
,,,,70.35,8.40E-15,,,,,,,,,,
,,,,70.5,8.79E-15,,,,,,,,,,
,,,,70.65,9.21E-15,,,,,,,,,,
,,,,70.8,9.67E-15,,,,,,,,,,
,,,,70.95,1.02E-14,,,,,,,,,,
,,,,71.1,1.07E-14,,,,,,,,,,
,,,,71.25,1.12E-14,,,,,,,,,,
,,,,71.4,1.19E-14,,,,,,,,,,
,,,,71.55,1.25E-14,,,,,,,,,,
,,,,71.7,1.32E-14,,,,,,,,,,
,,,,71.85,1.40E-14,,,,,,,,,,
,,,,72,1.49E-14,,,,,,,,,,
,,,,72.15,1.58E-14,,,,,,,,,,
,,,,72.3,1.68E-14,,,,,,,,,,
,,,,72.45,5.72E-07,,,,,,,,,,
,,,,72.6,2.13E-06,,,,,,,,,,
,,,,72.75,8.11E-06,,,,,,,,,,
,,,,72.9,2.77E-05,,,,,,,,,,
,,,,73.05,9.01E-05,,,,,,,,,,
,,,,73.2,0.000280291,,,,,,,,,,
,,,,73.35,0.000832957,,,,,,,,,,
,,,,73.5,0.002364674,,,,,,,,,,
,,,,73.65,0.006413041,,,,,,,,,,
,,,,73.8,0.01661542,,,,,,,,,,
,,,,73.95,0.04112666,,,,,,,,,,
,,,,74.1,0.09725492,,,,,,,,,,
,,,,74.25,0.2197288,,,,,,,,,,
,,,,74.4,0.4743092,,,,,,,,,,
,,,,74.55,0.9782444,,,,,,,,,,
,,,,74.7,1.927778,,,,,,,,,,
,,,,74.85,3.62997,,,,,,,,,,
,,,,75,6.531286,,,,,,,,,,
,,,,75.15,11.22942,,,,,,,,,,
,,,,75.3,18.44985,,,,,,,,,,
,,,,75.45,28.968,,,,,,,,,,
,,,,75.6,43.46588,,,,,,,,,,
,,,,75.75,62.3299,,,,,,,,,,
,,,,75.9,85.42332,,,,,,,,,,
,,,,76.05,111.8928,,,,,,,,,,
,,,,76.2,140.0837,,,,,,,,,,
,,,,76.35,167.6277,,,,,,,,,,
,,,,76.5,191.73,,,,,,,,,,
,,,,76.65,209.6201,,,,,,,,,,
,,,,76.8,219.0723,,,,,,,,,,
,,,,76.95,220.6552,,,,,,,,,,
,,,,77.1,216.0826,,,,,,,,,,
,,,,77.25,207.2317,,,,,,,,,,
,,,,77.4,195.3617,,,,,,,,,,
,,,,77.55,181.733,,,,,,,,,,
,,,,77.7,167.5773,,,,,,,,,,
,,,,77.85,153.9195,,,,,,,,,,
,,,,78,141.4843,,,,,,,,,,
,,,,78.15,130.6827,,,,,,,,,,
,,,,78.3,121.6528,,,,,,,,,,
,,,,78.45,114.3259,,,,,,,,,,
,,,,78.6,108.4987,,,,,,,,,,
,,,,78.75,103.8965,,,,,,,,,,
,,,,78.9,100.223,,,,,,,,,,
,,,,79.05,97.19537,,,,,,,,,,
,,,,79.2,94.56622,,,,,,,,,,
,,,,79.35,92.13467,,,,,,,,,,
,,,,79.5,89.74975,,,,,,,,,,
,,,,79.65,87.30821,,,,,,,,,,
,,,,79.8,84.74895,,,,,,,,,,
,,,,79.95,82.04559,,,,,,,,,,
,,,,80,81.11188,,,,,,,,,,