File: XRD of GO.csv
5,114.9639
5.3,39.47198
5.6,194.5541
5.9,238.0262
6.2,247.7043
6.5,198.071
6.8,286.9422
7.1,258.8007
7.4,408.1289
7.7,546.0764
8,907.1255
8.3,1622.426
8.6,3036.46
8.9,8510.377
9.2,21748.66
9.5,8679.124
9.8,3349.586
10.1,1681.194
10.4,1185.099
10.7,765.7834
11,517.7287
11.3,368.6754
11.6,331.279
11.9,63.11127
12.2,118.3342
12.5,151.1098
12.8,-101.0663
13.1,262.6345
13.4,133.0409
13.7,164.3152
14,150.6193
14.3,156.1154
14.6,104.9655
14.9,65.49029
15.2,99.31055
15.5,-67.79429
15.8,26.62181
16.1,105.0049
16.4,-163.5324
16.7,36.78946
17,-94.91697
17.3,-112.8723
17.6,-87.96369
17.9,55.58808
18.2,123.4813
18.5,226.2135
18.8,219.0819
19.1,83.96895
19.4,-23.90934
19.7,-162.6704
20,116.2349
20.3,-211.9773
20.6,-88.75801
20.9,-15.55785
21.2,-0.4942722
21.5,-25.01803
21.8,69.70805
22.1,-62.99372
22.4,127.1535
22.7,-32.90657
23,-39.56385
23.3,4.125279
23.6,-64.89561
23.9,23.65038
24.2,-46.62651
24.5,-12.11605
24.8,-79.208
25.1,-80.96282
25.4,36.13337
25.7,38.8354
26,17.22743
26.3,1.393616
26.6,31.41812
26.9,44.05177
27.2,79.37872
27.5,44.14981
27.8,21.7825
28.1,-47.63902
28.4,32.63605
28.7,29.35856
29,15.94599
29.3,-14.18418
29.6,-47.61444
29.9,-14.26691
30.2,42.52994
30.5,9.400593
30.8,26.30204
31.1,59.85797
31.4,-49.97462
31.7,73.42794
32,-63.31067
32.3,-16.9001
32.6,-14.05003
32.9,35.19656
33.2,40.79668
33.5,52.70733
33.8,67.55219
34.1,-91.37841
34.4,49.20589
34.7,19.26208
35,55.41383
35.3,-22.38183
35.6,22.49875
35.9,16.67978
36.2,60.14961
36.5,-30.38887
36.8,-48.2287
37.1,40.00377
37.4,107.6822
37.7,4.846869
38,-28.46189
38.3,17.79624
38.6,-33.0051
38.9,45.84105
39.2,94.37503
39.5,-20.6962
39.8,-32.66566
40.1,45.17363
40.4,22.86198
40.7,-26.22696
41,-12.05288
41.3,-51.24213
41.6,106.2456
41.9,43.78392
42.2,8.075184
42.5,-30.87609
42.8,90.25529
43.1,-78.53883
43.4,-3.93332
43.7,-35.93634
44,38.77725
44.3,-59.80071
44.6,28.3216
44.9,3.135999
45.2,27.96765
45.5,-40.52497
45.8,34.31664
46.1,32.48431
46.4,-6.030152
46.7,-44.56825
47,-36.47149
47.3,-58.41471
47.6,19.59389
47.9,74.21283
48.2,25.43391
48.5,23.24897
48.8,24.31648
49.1,55.29496
49.4,32.84287
49.7,33.61872
50,10.94766
50.3,-15.17842
50.6,35.23692
50.9,-7.80292
51.2,-4.293897
51.5,-44.23199
51.8,29.0535
52.1,38.89992
52.4,-51.35535
52.7,-5.041639
53,-25.48824
53.3,-2.691126
53.6,0.02039289
53.9,2.650344
54.2,45.20275
54.5,4.348316
54.8,13.42439
55.1,39.10167
55.4,34.71752
55.7,53.60929
56,-37.55231
56.3,-32.09661
56.6,-20.01956
56.9,92.01618
57.2,47.34799
57.5,9.313217
57.8,1.249223
58.1,3.160037
58.4,11.71635
58.7,10.25553
59,-1.218413
59.3,0.6318959
59.6,19.14381
59.9,-9.011971
60.2,-37.16476
60.5,-38.64386
60.8,-10.11191
61.1,21.76844
61.4,20.33444
61.7,-1.079502
62,-15.80848
62.3,26.14564
62.6,34.78098
62.9,36.76232
63.2,-14.57886
63.5,0.7555481
63.8,-20.56966
64.1,-41.88968
64.4,-26.53974
64.7,-1.188374
65,-59.17079
65.3,-13.82219
65.6,-45.14445
65.9,-23.13946
66.2,32.19092
66.5,10.84481
66.8,59.487
67.1,1.448954
67.4,43.39546
67.7,38.65797
68,-6.098707
68.3,12.45687
68.6,34.32284
68.9,-50.50269
69.2,-22.02158
69.5,-6.902375
69.8,4.853048
70.1,-10.09052
70.4,-5.068283
70.7,-10.08212
71,4.866095
71.3,43.10782
71.6,-8.692152
71.9,-13.86903
72.2,-12.42469
72.5,8.972328
72.8,-29.67985
73.1,41.61689
73.4,-17.13931
73.7,30.71634
74,-24.81805
74.3,6.255655
74.6,20.60225
74.9,31.55318
75.2,-10.89341
75.5,16.59392
75.8,-15.9867
76.1,-45.30381
76.4,11.97406
76.7,-34.15499
77,-10.35948
77.3,16.69204
77.6,-9.66897
77.9,13.88894
78.2,50.69725
78.5,-22.57928
78.8,4.057504
79.1,-26.06096
79.4,-6.269863
79.7,-49.90443
80,-46.96652